'Erecoil (keV)'    '68.75 keV inelastic'    'Erecoil (keV)'    'Erecoil (keV)'    'NR average'    'Erecoil (keV)'    '13.26 keV inelastic'    'Erecoil (keV)'    'threshold'    'Erecoil (keV)'    'NR low band'    'Erecoil (keV)'    'NR high band'    'Erecoil (keV)'
69.4986            0.991839                 1.02904            0.159922           14.2519         0.944224           2.1035                   1.49896            11.0197        -0.00202794        1.89725          1.50072            9.99176           1.5073
69.8626            0.987244                 1.31515            0.167136           14.3933         0.936084           2.11548                  1.48548            11.3235        0.00508184         1.92804          1.4886             10.3977           1.48881
70.2266            0.982648                 1.60126            0.174349           14.5347         0.927944           2.12746                  1.472              11.6309        0.0121827          1.95883          1.47648            10.7845           1.4703
70.5907            0.978053                 2.0573             0.181087           14.6761         0.919803           2.13943                  1.45851            11.9934        0.0191483          1.98962          1.46436            11.3552           1.44694
70.9944            0.973552                 2.45114            0.18775            14.8725         0.911724           2.15141                  1.44503            12.3254        0.0261916          2.02041          1.45224            12.0167           1.42316
71.4141            0.96911                  2.89932            0.193344           15.0765         0.903653           2.16339                  1.43155            12.6585        0.0332293          2.0512           1.44013            12.7205           1.40053
71.8389            0.964704                 3.39607            0.198764           15.2806         0.895582           2.17537                  1.41807            13.115         0.0399434          2.05803          1.42801            13.4695           1.37901
72.2689            0.960332                 3.93956            0.204011           15.4417         0.887461           2.18735                  1.40458            13.5195        0.0471839          2.05803          1.41589            14.2665           1.35857
72.7039            0.955996                 4.52794            0.209091           15.6025         0.879339           2.19933                  1.3911             13.9395        0.05427            2.07589          1.40377            15.1144           1.33918
73.1439            0.951694                 5.15937            0.214006           15.772          0.871354           2.22817                  1.37762            14.3757        0.0612048          2.09671          1.39165            16.016            1.32079
73.5888            0.947427                 5.83199            0.21876            15.9698         0.863711           2.26536                  1.36414            14.8287        0.0679911          2.11753          1.37953            16.9742           1.30339
74.0387            0.943195                 6.54398            0.223358           16.1731         0.855987           2.30256                  1.35066            15.299         0.0746319          2.13835          1.36741            17.9919           1.28694
74.4934            0.938998                 7.29347            0.227801           16.3825         0.848189           2.33975                  1.33718            15.7873        0.0811301          2.15917          1.35529            19.0719           1.27141
74.953             0.934835                 8.07864            0.232095           16.5983         0.840325           2.37694                  1.3237             16.2942        0.0874887          2.17998          1.34317            20.2171           1.25677
75.4173            0.930706                 8.89763            0.236242           16.821          0.832402           2.41414                  1.31022            16.8202        0.0937106          2.2008           1.33105            21.4303           1.24298
75.8863            0.926612                 9.7486             0.240246           17.051          0.824426           2.45133                  1.29674            17.366         0.0997989          2.22162          1.31893            22.7144           1.23001
76.3601            0.922551                 10.6297            0.244111           17.2887         0.816406           2.48852                  1.28326            17.9321        0.105756           2.24244          1.30681            24.0723           1.21783
76.8384            0.918525                 11.5391            0.24784            17.5346         0.808347           2.5123                   1.26978            18.5193        0.111586           2.26326          1.29469            25.5067           1.2064
77.3213            0.914532                 12.475             0.251437           17.7891         0.800258           2.53132                  1.2563             19.128         0.117291           2.28408          1.28257            27.0206           1.19571
77.8088            0.910574                 13.4354            0.254905           18.0526         0.792145           2.55034                  1.24282            19.7588        0.122873           2.3049           1.27045            28.6169           1.18571
78.3008            0.906649                 14.4186            0.258249           18.3256         0.784016           2.56937                  1.22933            20.4124        0.128337           2.32572          1.25833            30.2983           1.17636
78.7972            0.902757                 15.4227            0.261471           18.6085         0.775877           2.58839                  1.21585            21.0894        0.133685           2.34654          1.24621            32.0678           1.16765
79.2979            0.898899                 16.4459            0.264575           18.9017         0.767736           2.60741                  1.20237            21.7904        0.138919           2.388            1.2341             33.9281           1.15954
79.8031            0.895074                 17.4864            0.267566           19.2057         0.759601           2.62644                  1.18889            22.5159        0.144044           2.43472          1.22198            35.8822           1.15199
80.3125            0.891282                 18.5422            0.270445           19.5209         0.751477           2.64586                  1.17541            23.2665        0.149061           2.48143          1.20986            37.9329           1.14498
80.8262            0.887523                 19.6115            0.273218           19.8477         0.743372           2.67385                  1.16193            24.043         0.153974           2.52815          1.19775            40.0831           1.13846
81.3441            0.883798                 20.6925            0.275887           20.1866         0.735294           2.70186                  1.14845            24.8458        0.158786           2.57486          1.18563            42.3356           1.13242
81.8661            0.880105                 21.7834            0.278456           20.538          0.72725            2.73                     1.13497            25.6755        0.163499           2.62157          1.17352            44.6932           1.12681
82.3923            0.876444                 22.8823            0.280929           20.9023         0.719246           2.75835                  1.12149            26.5328        0.168117           2.65936          1.1614             47.1589           1.12161
82.9225            0.872817                 23.9874            0.28331            21.28           0.71129            2.78702                  1.10801            27.4183        0.172642           2.68848          1.14928            49.7355           1.11678
83.4567            0.869222                 25.0968            0.285601           21.6715         0.703389           2.81609                  1.09452            28.3246        0.17687            2.71759          1.13716            52.4259           1.11229
83.995             0.865659                 26.2086            0.287807           22.0772         0.69555            2.84566                  1.08104            29.2159        0.180621           2.74671          1.12504            55.2329           1.10812
84.5371            0.862128                 27.3211            0.289931           22.4976         0.68778            2.87582                  1.06756            30.0816        0.184727           2.77582          1.11292            58.1593           1.10421
85.0831            0.85863                  28.4324            0.291977           22.9331         0.680087           2.90666                  1.05408            31.0026        0.188528           2.81103          1.10084            61.2081           1.10056
85.6329            0.855163                 29.5406            0.293948           23.3841         0.672477           2.93829                  1.0406             31.9265        0.192183           2.85418          1.08879            64.382            1.09711
86.1865            0.851728                 30.6439            0.295847           23.8511         0.664958           2.97079                  1.02712            32.8532        0.195698           2.89778          1.07671            67.5302           1.0945
86.7439            0.848325                 31.7404            0.29768            24.3345         0.657537           3.00425                  1.01364            33.783         0.199077           2.942            1.06463            70.1079           1.09237
87.3049            0.844954                 32.8284            0.299448           24.8347         0.650221           3.03877                  1.00015            34.7159        0.202326           2.98698          1.05253            72.6876           1.09017
87.8696            0.841615                 33.9059            0.301156           25.3522         0.643017           3.07445                  0.986673           35.652         0.205452           3.03288          1.04041            75.2759           1.08848
88.4378            0.838306                 34.9711            0.302807           25.8873         0.635933           3.11137                  0.973192           36.5914        0.208459           3.07985          1.02829            77.8649           1.08686
89.0096            0.835029                 36.0223            0.304405           26.4406         0.628975           3.14964                  0.959711           37.5344        0.211353           3.12805          1.01615            80.4545           1.08532
89.5849            0.831783                 37.0574            0.305953           27.0125         0.62215            3.18933                  0.946231           38.4809        0.214139           3.17764          1.00401            83.0451           1.08387
90.1637            0.828568                 38.0748            0.307455           27.6034         0.615466           3.23056                  0.932751           39.4311        0.216823           3.22877          0.991864           85.6366           1.08252
90.7459            0.825385                 39.0724            0.308915           28.2136         0.60893            3.2734                   0.919271           40.3851        0.219411           3.28159          0.979712           88.2292           1.08129
91.3314            0.822232                 40.0486            0.310336           28.8053         0.602244           3.31797                  0.905791           41.343         0.221908           3.33627          0.967557           90.8231           1.08018
91.9202            0.819109                 41.0015            0.311722           29.3955         0.595271           3.36433                  0.892312           42.305         0.224319           3.39295          0.955401           93.4183           1.07919
92.5123            0.816017                 41.9291            0.313075           30.0894         0.588766           3.4126                   0.878833           43.2711        0.226649           3.45178          0.943245           96.015            1.07836
93.1076            0.812956                 42.8297            0.314401           30.83           0.582143           3.46287                  0.865355           44.2416        0.228906           3.51293          0.931091           98.6133           1.07767
93.7061            0.809925                 43.7015            0.315703           31.6713         0.575468           3.51522                  0.851878           45.2163        0.231093           3.57656          0.918941           101.202           1.07652
94.3076            0.806925                 44.5425            0.316983           32.5156         0.56908            3.56976                  0.838401           46.1956        0.233216           3.6428           0.906796           103.79            1.07531
94.9123            0.803954                 45.4638            0.318149           33.364          0.562969           3.62657                  0.824924           47.1795        0.235282           3.71183          0.894658           106.387           1.07472
95.52              0.801013                 46.4948            0.31921            34.2171         0.557126           3.68576                  0.811449           48.1682        0.237295           3.78379          0.882529           108.984           1.07405
96.1307            0.798103                 47.5258            0.320271           35.0759         0.551542           3.7474                   0.797974           49.1616        0.23926            3.85884          0.87041            111.58            1.07334
96.7443            0.795222                 48.5568            0.321331           35.9411         0.546206           3.8116                   0.7845             50.1601        0.241184           3.93713          0.858303           114.176           1.07265
97.3608            0.79237                  49.586             0.322477           36.8136         0.54111            3.87846                  0.771026           51.1636        0.243072           4.01882          0.846209           116.773           1.07204
97.9801            0.789549                 50.6142            0.323707           37.6942         0.536243           3.94805                  0.757554           52.1723        0.24493            4.10407          0.83413            119.371           1.07156
98.6022            0.786756                 51.6433            0.324922           38.5836         0.531595           4.02049                  0.744082           53.1863        0.246762           4.19302          0.822067           121.971           1.07128
99.2271            0.783993                 52.6726            0.326115           39.4829         0.527157           4.09585                  0.730612           54.2057        0.248574           4.28584          0.810023           124.561           1.07017
99.8546            0.781259                 53.7023            0.327289           40.3927         0.52292            4.17424                  0.717142           55.2294        0.250173           4.38268          0.797999           127.16            1.07017
100.485            0.778555                 54.7323            0.328443           41.3139         0.518873           4.25575                  0.703673           56.2438        0.251492           4.49544          0.785928           129.758           1.07001
101.118            0.775879                 55.7626            0.329579           42.2473         0.515007           4.34046                  0.690206           57.2435        0.253307           4.61268          0.773837           132.353           1.06947
101.753            0.773232                 56.7932            0.330695           43.1938         0.511312           4.42849                  0.67674            58.2593        0.254577           4.72992          0.761746           134.949           1.06897
102.391            0.770613                 57.824             0.331793           44.1541         0.507779           4.51991                  0.663274           59.2566        0.25653            4.84716          0.749655           137.546           1.06851
103.031            0.768024                 58.8552            0.332874           45.1291         0.504398           4.61482                  0.64981            60.2724        0.258059           4.93135          0.73755            140.142           1.06808
103.674            0.765462                 59.8867            0.333937           46.1197         0.501159           4.71332                  0.636347           61.2878        0.259545           5.02639          0.725451           142.74            1.06768
104.319            0.762929                 60.9184            0.334983           47.1266         0.498053           4.8155                   0.622886           62.3027        0.260989           5.16416          0.713375           145.337           1.06732
104.967            0.760425                 61.9504            0.336013           48.1506         0.495069           4.92146                  0.609426           63.3173        0.262394           5.31209          0.701301           147.935           1.06699
105.616            0.757948                 62.9826            0.337027           49.1927         0.492199           5.03128                  0.595967           64.3316        0.263762           5.47122          0.689232           150.533           1.06668
106.268            0.7555                   64.0151            0.338025           50.2536         0.489432           5.14506                  0.58251            65.3459        0.265094           5.64256          0.677172           153.132           1.06641
106.922            0.753079                 65.0478            0.339007           51.3341         0.48676            5.26289                  0.569054           66.3601        0.266394           5.82715          0.665121           155.731           1.06616
107.579            0.750686                 66.0807            0.339975           52.4351         0.484171           5.38487                  0.555599           67.3743        0.267662           6.02601          0.653083           158.33            1.06593
108.237            0.748321                 67.1139            0.340929           53.5574         0.481657           5.51109                  0.542146           68.3887        0.268902           6.24016          0.641059           160.93            1.06573
108.897            0.745983                 68.1473            0.341869           54.7018         0.479208           5.64165                  0.528695           69.4034        0.270116           6.47064          0.629053           163.529           1.06555
109.56             0.743673                 69.1808            0.342795           55.8691         0.476813           5.79137                  0.515255           70.4185        0.271305           6.71846          0.617066           166.129           1.06539
110.224            0.74139                  70.2146            0.343708           57.0602         0.474465           5.97145                  0.501835           71.434         0.272471           6.98466          0.605101           168.729           1.06525
110.89             0.739134                 71.2486            0.344609           58.1774         0.472578           6.15153                  0.488415           72.4501        0.273618           7.27026          0.59316            171.329           1.06512
